Wavelength,Reflectance
380,0.105036
382,0.105587
384,0.072506
386,0.03599
388,0.067764
390,0.066328
392,0.063316
394,0.083501
396,0.052675
398,0.030118
400,0.046446
402,0.02964
404,0.049163
406,0.021561
408,0.03499
410,0.025696
412,0.030229
414,0.008756
416,0.037008
418,0.021141
420,0.034028
422,0.0
424,0.021697
426,0.04668
428,0.0
430,0.0
432,0.070764
434,0.006381
436,0.004669
438,0.020641
440,0.00982
442,0.0
444,0.004753
446,0.000185
448,0.015513
450,0.0
452,0.01292
454,0.011862
456,0.010844
458,0.012109
460,0.031025
462,0.012021
464,0.013228
466,0.00613
468,0.01654
470,0.01538
472,0.02115
474,0.02818
476,0.032898
478,0.038239
480,0.041848
482,0.044418
484,0.052369
486,0.052436
488,0.056698
490,0.067209
492,0.067482
494,0.064621
496,0.066829
498,0.057106
500,0.064177
502,0.054318
504,0.061981
506,0.065069
508,0.045437
510,0.044653
512,0.039456
514,0.022441
516,0.029133
518,0.036963
520,0.027696
522,0.044073
524,0.028188
526,0.033062
528,0.046518
530,0.049728
532,0.03578
534,0.033723
536,0.04008
538,0.04147
540,0.044375
542,0.033615
544,0.039392
546,0.044914
548,0.053291
550,0.064165
552,0.065735
554,0.088324
556,0.093237
558,0.123345
560,0.135361
562,0.17692
564,0.209952
566,0.253443
568,0.301594
570,0.341903
572,0.401875
574,0.449905
576,0.513677
578,0.571205
580,0.62643
582,0.68607
584,0.737682
586,0.788957
588,0.833897
590,0.878276
592,0.921337
594,0.951248
596,0.980527
598,1.01549
600,1.034472
602,1.067982
604,1.087775
606,1.106193
608,1.125449
610,1.139338
612,1.155569
614,1.172995
616,1.175726
618,1.182969
620,1.189244
622,1.185459
624,1.187202
626,1.18245
628,1.187232
630,1.166655
632,1.167103
634,1.150928
636,1.145569
638,1.1318
640,1.121755
642,1.109409
644,1.103024
646,1.089885
648,1.078879
650,1.071794
652,1.076029
654,1.060308
656,1.056625
658,1.058962
660,1.043663
662,1.049929
664,1.052916
666,1.052933
668,1.049668
670,1.052769
672,1.054268
674,1.059769
676,1.065298
678,1.060757
680,1.06368
682,1.061823
684,1.068899
686,1.067666
688,1.057188
690,1.055994
692,1.037323
694,1.039258
696,1.034017
698,1.025192
700,1.01195
702,1.000004
704,0.978194
706,0.961166
708,0.944171
710,0.926122
712,0.91171
714,0.894335
716,0.881161
718,0.867346
720,0.850114
722,0.847116
724,0.836038
726,0.825875
728,0.815952
730,0.808959
732,0.8072
734,0.799375
736,0.802934
738,0.812845
740,0.826937
742,0.854513
744,0.884835
746,0.915314
748,0.938198
750,0.970991
752,1.01854
754,1.047176
756,1.054526
758,1.079163
760,1.084602
762,1.115218
764,1.087201
766,1.064396
768,1.037024
770,0.988543
772,0.929093
774,0.910937
776,0.913695
778,0.952473
780,0.935446
